File: example raman data/GM1_Fiber002.V2_Black_C85umxD12.5_600sec.csv
340.52,38391
348.038,37828
355.545,38001
363.041,37979
370.528,37901
378.004,38373
385.47,41244
392.925,45336
400.371,37155
407.806,36425
415.231,35948
422.645,35735
430.05,35471
437.444,35141
444.829,34930
452.203,34443
459.567,34432
466.921,34216
474.265,34354
481.599,33998
488.923,34327
496.237,33863
503.541,33487
510.835,33280
518.119,32848
525.393,32943
532.657,32567
539.912,32383
547.156,32340
554.391,32409
561.616,32424
568.831,32156
576.036,32465
583.231,32642
590.417,32284
597.592,32006
604.758,32725
611.915,31499
619.061,31160
626.198,30811
633.326,30733
640.443,30441
647.551,31082
654.65,31821
661.738,30071
668.818,30214
675.887,29886
682.947,30006
689.998,29874
697.039,29834
704.07,29496
711.092,30021
718.105,29523
725.108,29309
732.102,29124
739.086,29105
746.061,29312
753.026,29352
759.982,28924
766.929,28771
773.866,28198
780.794,27891
787.713,28030
794.622,27873
801.523,27832
808.414,27854
815.295,27529
822.168,27590
829.031,27359
835.885,27215
842.73,27209
849.565,26937
856.392,26941
863.209,26815
870.018,26659
876.817,26589
883.607,26942
890.388,26423
897.16,25916
903.923,26149
910.677,25889
917.422,26402
924.158,25907
930.885,26100
937.603,25990
944.312,25958
951.012,25753
957.703,25702
964.385,25424
971.059,25673
977.723,25208
984.379,25109
991.026,25045
997.664,24760
1004.29,24743
1010.91,24643
1017.52,24187
1024.13,24539
1030.72,25154
1037.31,24746
1043.88,24403
1050.45,24246
1057.01,24123
1063.56,24118
1070.1,24121
1076.64,24172
1083.16,24184
1089.68,24057
1096.18,24332
1102.68,24799
1109.17,24264
1115.66,23712
1122.13,23847
1128.59,24528
1135.05,24783
1141.5,23884
1147.94,25014
1154.37,24378
1160.79,23914
1167.2,23799
1173.61,23605
1180,23400
1186.39,23143
1192.77,22960
1199.14,23074
1205.51,22700
1211.86,22845
1218.21,22749
1224.55,22838
1230.88,22495
1237.2,22414
1243.51,22527
1249.82,22802
1256.12,22713
1262.4,28952
1268.68,22816
1274.96,22833
1281.22,23001
1287.48,23296
1293.72,23369
1299.96,24272
1306.2,23817
1312.42,24058
1318.63,23506
1324.84,23487
1331.04,23274
1337.23,23625
1343.41,23280
1349.59,23081
1355.76,23262
1361.91,23302
1368.06,23638
1374.21,23678
1380.34,23259
1386.47,23213
1392.59,22934
1398.7,22851
1404.8,22675
1410.9,22752
1416.98,22421
1423.06,27000
1429.13,23042
1435.2,22486
1441.25,21941
1447.3,22336
1453.34,22247
1459.37,21336
1465.4,22042
1471.41,20541
1477.42,19835
1483.42,19734
1489.42,19515
1495.4,19544
1501.38,19537
1507.35,19644
1513.31,19437
1519.27,19187
1525.22,19083
1531.15,20026
1537.09,17987
1543.01,17575
1548.93,17448
1554.84,17198
1560.74,17096
1566.63,16584
1572.52,16901
1578.4,16713
1584.27,16248
1590.13,16132
1595.99,15954
1601.83,16079
1607.67,16353
1613.51,15801
1619.33,15367
1625.15,15199
1630.96,15128
1636.77,14772
1642.56,15102
1648.35,14627
1654.13,14665
1659.91,14669
1665.67,14975
1671.43,15284
1677.18,16211
1682.93,20803
1688.67,19036
1694.4,17146
1700.12,15016
1705.83,14347
1711.54,13873
1717.24,13596
1722.94,13354
1728.62,13348
1734.3,13305
1739.97,13062
1745.64,13020
1751.29,13020
1756.94,12906
1762.59,12946
1768.22,13582
1773.85,15433
1779.47,13184
1785.09,12734
1790.69,12606
1796.29,12522
1801.89,12682
1807.47,12517
1813.05,12536
1818.62,12399
1824.19,12313
1829.75,12434
1835.3,12574
1840.84,12408
1846.38,12400
1851.91,12446
1857.43,12378
1862.94,12159
1868.45,12207
1873.95,12387
1879.45,12491
1884.94,12413
1890.42,12366
1895.89,12387
1901.36,12578
1906.82,12600
1912.27,12610
1917.72,12779
1923.16,12634
1928.59,12664
1934.01,13144
1939.43,13094
1944.84,12963
1950.25,12915
1955.65,12996
1961.04,12875
1966.43,12929
1971.8,13146
1977.17,13094
1982.54,13247
1987.9,13345
1993.25,13334
1998.59,13408
2003.93,13418
2009.26,13561
2014.59,13698
2019.9,13791
2025.21,13783
2030.52,13998
2034.76,13895