File: example raman data/GM1_Fiber005.V2_Blue_140umx1.34um_40x_18sec.csv
340.52,65535
348.038,65535
355.545,65535
363.041,65535
370.528,65535
378.004,65535
385.47,65535
392.925,65535
400.371,65317
407.806,65535
415.231,65535
422.645,65535
430.05,65535
437.444,65524
444.829,64487
452.203,64556
459.567,64620
466.921,64712
474.265,64858
481.599,63717
488.923,64647
496.237,64477
503.541,65114
510.835,64945
518.119,64137
525.393,64469
532.657,63941
539.912,63303
547.156,64612
554.391,64881
561.616,65268
568.831,64420
576.036,63597
583.231,64230
590.417,64509
597.592,64200
604.758,63807
611.915,63610
619.061,63943
626.198,63042
633.326,63079
640.443,62577
647.551,64229
654.65,63300
661.738,64036
668.818,62396
675.887,62779
682.947,61779
689.998,62708
697.039,62508
704.07,61477
711.092,60956
718.105,60738
725.108,61568
732.102,61427
739.086,60596
746.061,60909
753.026,59990
759.982,60988
766.929,59531
773.866,60143
780.794,60273
787.713,60060
794.622,59581
801.523,59702
808.414,58902
815.295,57767
822.168,58567
829.031,59578
835.885,58784
842.73,58646
849.565,58486
856.392,58255
863.209,57778
870.018,57664
876.817,57517
883.607,57638
890.388,57107
897.16,57045
903.923,57146
910.677,56193
917.422,56909
924.158,57101
930.885,57886
937.603,57839
944.312,57551
951.012,56733
957.703,57101
964.385,55728
971.059,55609
977.723,56167
984.379,55406
991.026,54891
997.664,54626
1004.29,55816
1010.91,55418
1017.52,55312
1024.13,55113
1030.72,55462
1037.31,55142
1043.88,55045
1050.45,54699
1057.01,55143
1063.56,56032
1070.1,56028
1076.64,55083
1083.16,54393
1089.68,53592
1096.18,52981
1102.68,52736
1109.17,52963
1115.66,52822
1122.13,52834
1128.59,53093
1135.05,51807
1141.5,52203
1147.94,51820
1154.37,51781
1160.79,51239
1167.2,50756
1173.61,50157
1180,50505
1186.39,50290
1192.77,50069
1199.14,49939
1205.51,49277
1211.86,48293
1218.21,47853
1224.55,48043
1230.88,48096
1237.2,47457
1243.51,47641
1249.82,47338
1256.12,47920
1262.4,48136
1268.68,47169
1274.96,46937
1281.22,45739
1287.48,45827
1293.72,46245
1299.96,45893
1306.2,45456
1312.42,44576
1318.63,44590
1324.84,44673
1331.04,43797
1337.23,43708
1343.41,43885
1349.59,42643
1355.76,41544
1361.91,41398
1368.06,41542
1374.21,40855
1380.34,40728
1386.47,40077
1392.59,39401
1398.7,38741
1404.8,39095
1410.9,38223
1416.98,37384
1423.06,36274
1429.13,35892
1435.2,35978
1441.25,35011
1447.3,34393
1453.34,34075
1459.37,33535
1465.4,32756
1471.41,32484
1477.42,31889
1483.42,30403
1489.42,29535
1495.4,29145
1501.38,28055
1507.35,27804
1513.31,26983
1519.27,26465
1525.22,25947
1531.15,25325
1537.09,24290
1543.01,23846
1548.93,23238
1554.84,22619
1560.74,21550
1566.63,20960
1572.52,20365
1578.4,20144
1584.27,18994
1590.13,18268
1595.99,17199
1601.83,16896
1607.67,16497
1613.51,15883
1619.33,15020
1625.15,14508
1630.96,13811
1636.77,13638
1642.56,12526
1648.35,12338
1654.13,11627
1659.91,11101
1665.67,10470
1671.43,10104
1677.18,10032
1682.93,9643
1688.67,9257
1694.4,8551
1700.12,8138
1705.83,7744
1711.54,7410
1717.24,6986
1722.94,6725
1728.62,6289
1734.3,6001
1739.97,5794
1745.64,5571
1751.29,5358
1756.94,4994
1762.59,4767
1768.22,4582
1773.85,4391
1779.47,4103
1785.09,3906
1790.69,3815
1796.29,3555
1801.89,3451
1807.47,3463
1813.05,3235
1818.62,3068
1824.19,2967
1829.75,2857
1835.3,2856
1840.84,2718
1846.38,2655
1851.91,2597
1857.43,2496
1862.94,2377
1868.45,2367
1873.95,2287
1879.45,2231
1884.94,2230
1890.42,2079
1895.89,2083
1901.36,2021
1906.82,2051
1912.27,1967
1917.72,1975
1923.16,2002
1928.59,1909
1934.01,1951
1939.43,1830
1944.84,1814
1950.25,1750
1955.65,1799
1961.04,1812
1966.43,1776
1971.8,1713
1977.17,1712
1982.54,1730
1987.9,1739
1993.25,1692
1998.59,1669
2003.93,1673
2009.26,1635
2014.59,1635
2019.9,1612
2025.21,1651
2030.52,1614
2034.76,1590