File: example raman data/GM1_Fiber002.V3_Black_C85umxD12.5_600sec.csv
340.52,27433
348.038,26738
355.545,26559
363.041,26084
370.528,26301
378.004,26580
385.47,29042
392.925,33094
400.371,24575
407.806,23762
415.231,23626
422.645,23616
430.05,23175
437.444,22955
444.829,22531
452.203,22316
459.567,21853
466.921,22743
474.265,22072
481.599,22021
488.923,21900
496.237,21533
503.541,21273
510.835,21176
518.119,30084
525.393,20754
532.657,20571
539.912,20495
547.156,20360
554.391,21122
561.616,20500
568.831,20411
576.036,20308
583.231,20367
590.417,20176
597.592,20546
604.758,20852
611.915,19668
619.061,19395
626.198,18883
633.326,18878
640.443,18663
647.551,18754
654.65,18362
661.738,18079
668.818,18176
675.887,18151
682.947,18274
689.998,18313
697.039,18092
704.07,18083
711.092,18287
718.105,18069
725.108,18139
732.102,17945
739.086,17800
746.061,18090
753.026,18216
759.982,18199
766.929,18073
773.866,18030
780.794,18214
787.713,18781
794.622,18967
801.523,19001
808.414,19302
815.295,19013
822.168,19433
829.031,19368
835.885,19474
842.73,19522
849.565,19687
856.392,19715
863.209,20100
870.018,20500
876.817,20727
883.607,20903
890.388,20868
897.16,20753
903.923,21294
910.677,21613
917.422,22496
924.158,22375
930.885,22698
937.603,22878
944.312,22566
951.012,22407
957.703,22255
964.385,21873
971.059,21540
977.723,20907
984.379,20738
991.026,20179
997.664,19846
1004.29,19627
1010.91,19201
1017.52,18957
1024.13,18950
1030.72,19253
1037.31,19181
1043.88,19057
1050.45,18956
1057.01,19095
1063.56,19001
1070.1,19203
1076.64,19670
1083.16,19884
1089.68,19961
1096.18,20158
1102.68,20306
1109.17,20558
1115.66,21015
1122.13,22000
1128.59,25138
1135.05,31034
1141.5,26847
1147.94,26929
1154.37,27683
1160.79,26637
1167.2,24261
1173.61,22247
1180,21367
1186.39,21327
1192.77,22642
1199.14,27398
1205.51,22152
1211.86,19965
1218.21,19768
1224.55,19576
1230.88,19564
1237.2,19680
1243.51,20003
1249.82,19531
1256.12,19554
1262.4,19764
1268.68,19659
1274.96,19502
1281.22,19724
1287.48,20203
1293.72,20232
1299.96,21439
1306.2,21226
1312.42,21404
1318.63,21398
1324.84,21752
1331.04,22216
1337.23,22741
1343.41,23198
1349.59,23420
1355.76,25662
1361.91,30756
1368.06,39217
1374.21,33512
1380.34,30594
1386.47,27809
1392.59,25278
1398.7,23395
1404.8,22287
1410.9,22136
1416.98,21970
1423.06,26258
1429.13,22460
1435.2,22000
1441.25,21243
1447.3,20761
1453.34,20976
1459.37,19545
1465.4,20430
1471.41,19094
1477.42,19154
1483.42,20047
1489.42,21793
1495.4,23247
1501.38,28603
1507.35,32691
1513.31,29952
1519.27,27647
1525.22,26091
1531.15,24674
1537.09,20239
1543.01,18280
1548.93,17200
1554.84,16576
1560.74,15970
1566.63,15823
1572.52,15848
1578.4,15760
1584.27,15275
1590.13,15000
1595.99,14904
1601.83,15159
1607.67,15291
1613.51,14636
1619.33,14466
1625.15,14224
1630.96,14069
1636.77,14134
1642.56,13771
1648.35,13849
1654.13,13859
1659.91,14027
1665.67,14034
1671.43,14397
1677.18,15542
1682.93,19841
1688.67,18266
1694.4,16594
1700.12,14455
1705.83,13770
1711.54,13216
1717.24,12857
1722.94,12550
1728.62,12601
1734.3,12607
1739.97,12361
1745.64,12208
1751.29,12344
1756.94,12214
1762.59,12418
1768.22,13006
1773.85,14907
1779.47,12568
1785.09,12209
1790.69,12212
1796.29,11961
1801.89,11944
1807.47,12009
1813.05,12098
1818.62,11849
1824.19,11935
1829.75,11967
1835.3,12016
1840.84,11900
1846.38,11926
1851.91,12088
1857.43,11902
1862.94,11822
1868.45,11866
1873.95,11963
1879.45,11909
1884.94,12005
1890.42,12085
1895.89,12128
1901.36,11974
1906.82,12104
1912.27,12130
1917.72,12263
1923.16,12380
1928.59,12307
1934.01,12568
1939.43,12679
1944.84,12520
1950.25,12630
1955.65,12467
1961.04,12547
1966.43,12640
1971.8,12612
1977.17,12688
1982.54,12919
1987.9,12828
1993.25,12884
1998.59,12848
2003.93,12921
2009.26,13211
2014.59,13346
2019.9,13280
2025.21,13323
2030.52,13390
2034.76,13584