File: example raman data/GM1_Fiber005.V4_Blue_140umx1.34um_40x_300sec.csv
340.52,43336
348.038,44109
355.545,43685
363.041,42187
370.528,41344
378.004,41708
385.47,42908
392.925,44708
400.371,40216
407.806,39567
415.231,39425
422.645,38843
430.05,38759
437.444,38466
444.829,37724
452.203,37792
459.567,37738
466.921,37216
474.265,37296
481.599,36955
488.923,36805
496.237,36737
503.541,36483
510.835,36272
518.119,36001
525.393,35701
532.657,35235
539.912,35029
547.156,35051
554.391,34798
561.616,34641
568.831,34520
576.036,34589
583.231,34154
590.417,34207
597.592,33984
604.758,34374
611.915,34160
619.061,35630
626.198,36400
633.326,34089
640.443,32731
647.551,32781
654.65,32272
661.738,32140
668.818,32327
675.887,33359
682.947,31779
689.998,31603
697.039,32005
704.07,32240
711.092,31855
718.105,31879
725.108,31434
732.102,30769
739.086,30406
746.061,30566
753.026,30811
759.982,29911
766.929,29273
773.866,29005
780.794,28509
787.713,28689
794.622,28310
801.523,27973
808.414,28018
815.295,27692
822.168,27764
829.031,28170
835.885,28105
842.73,27793
849.565,27251
856.392,26957
863.209,26490
870.018,26689
876.817,26055
883.607,26172
890.388,25750
897.16,25568
903.923,25692
910.677,25019
917.422,25300
924.158,25378
930.885,25245
937.603,25300
944.312,25230
951.012,25072
957.703,25112
964.385,24633
971.059,24824
977.723,24416
984.379,24481
991.026,23975
997.664,23671
1004.29,23708
1010.91,23690
1017.52,23588
1024.13,23638
1030.72,23520
1037.31,23389
1043.88,23169
1050.45,22811
1057.01,22985
1063.56,22586
1070.1,22491
1076.64,22662
1083.16,22495
1089.68,22879
1096.18,22422
1102.68,22246
1109.17,22204
1115.66,22079
1122.13,21817
1128.59,22224
1135.05,21634
1141.5,21731
1147.94,21788
1154.37,21726
1160.79,21686
1167.2,21735
1173.61,21606
1180,21395
1186.39,21241
1192.77,21149
1199.14,21123
1205.51,20862
1211.86,20696
1218.21,20681
1224.55,20697
1230.88,20008
1237.2,19787
1243.51,19987
1249.82,20021
1256.12,20176
1262.4,20031
1268.68,19897
1274.96,19727
1281.22,19861
1287.48,20240
1293.72,20766
1299.96,21274
1306.2,20530
1312.42,20328
1318.63,20044
1324.84,19687
1331.04,19441
1337.23,19190
1343.41,18804
1349.59,18416
1355.76,18254
1361.91,18401
1368.06,18400
1374.21,18347
1380.34,18945
1386.47,18744
1392.59,18066
1398.7,17939
1404.8,17762
1410.9,17941
1416.98,17534
1423.06,19770
1429.13,17984
1435.2,17938
1441.25,17116
1447.3,17045
1453.34,16891
1459.37,16310
1465.4,16537
1471.41,15466
1477.42,15363
1483.42,15078
1489.42,14713
1495.4,14431
1501.38,14143
1507.35,14070
1513.31,13937
1519.27,13689
1525.22,13791
1531.15,14476
1537.09,13089
1543.01,12922
1548.93,12892
1554.84,12441
1560.74,12325
1566.63,11971
1572.52,12003
1578.4,11740
1584.27,11304
1590.13,11256
1595.99,10975
1601.83,10957
1607.67,11056
1613.51,10644
1619.33,10519
1625.15,10369
1630.96,10802
1636.77,11882
1642.56,11530
1648.35,10848
1654.13,10535
1659.91,9555
1665.67,9343
1671.43,9379
1677.18,9791
1682.93,12018
1688.67,11158
1694.4,10274
1700.12,9069
1705.83,8654
1711.54,8198
1717.24,8240
1722.94,7886
1728.62,7755
1734.3,7849
1739.97,7787
1745.64,7687
1751.29,7553
1756.94,7475
1762.59,7452
1768.22,8499
1773.85,8608
1779.47,7535
1785.09,7277
1790.69,7103
1796.29,7105
1801.89,7111
1807.47,7051
1813.05,6973
1818.62,7023
1824.19,6936
1829.75,6980
1835.3,6788
1840.84,6866
1846.38,6963
1851.91,6924
1857.43,6817
1862.94,6828
1868.45,6767
1873.95,6861
1879.45,6830
1884.94,6874
1890.42,6773
1895.89,6784
1901.36,6803
1906.82,6914
1912.27,6806
1917.72,7021
1923.16,6870
1928.59,6982
1934.01,7170
1939.43,7102
1944.84,7059
1950.25,6964
1955.65,7073
1961.04,7038
1966.43,7238
1971.8,7223
1977.17,7151
1982.54,7267
1987.9,7200
1993.25,7316
1998.59,7271
2003.93,7328
2009.26,7451
2014.59,7414
2019.9,7538
2025.21,7552
2030.52,7480
2034.76,7635