File: example raman data/GM1_Fiber002.V5.10x_Black_C85umxD12.5_30sec.csv
269.58,25822
277.181,25846
284.772,25596
292.352,25378
299.921,25380
307.48,25212
315.029,25561
322.567,25504
330.095,25302
337.613,25055
345.12,24972
352.617,24716
360.103,24740
367.579,24339
375.045,24136
382.5,23980
389.946,24182
397.381,23984
404.806,23911
412.22,23678
419.625,23506
427.019,23652
434.403,23384
441.777,23349
449.141,23209
456.495,23130
463.838,22923
471.172,23024
478.495,22969
485.809,22763
493.113,22651
500.406,22736
507.69,22545
514.963,22306
522.227,22155
529.481,22092
536.725,21933
543.959,21936
551.183,21847
558.397,21795
565.601,21656
572.796,21578
579.981,21273
587.156,21284
594.321,20990
601.477,21141
608.623,20852
615.759,20751
622.885,20647
630.002,20728
637.109,20620
644.206,20318
651.294,20407
658.372,20035
665.441,20155
672.5,20114
679.55,20028
686.589,19658
693.62,19469
700.641,19393
707.652,19124
714.654,19161
721.647,18839
728.63,18775
735.603,18878
742.567,18675
749.522,18499
756.468,18395
763.404,18448
770.33,18180
777.248,17975
784.156,18069
791.054,17900
797.944,17847
804.824,17656
811.695,17471
818.557,17289
825.409,17287
832.253,17222
839.087,17160
845.912,17262
852.728,17084
859.534,17040
866.332,16968
873.12,16853
879.9,16824
886.67,16863
893.431,16860
900.183,16825
906.927,16943
913.661,16518
920.386,16577
927.102,16412
933.809,16452
940.508,16277
947.197,16267
953.877,16138
960.549,16147
967.211,16097
973.865,15958
980.51,15981
987.146,15923
993.773,15781
1000.39,15950
1007,15796
1013.6,15884
1020.19,16010
1026.78,16288
1033.35,15808
1039.92,15668
1046.47,15655
1053.02,15599
1059.56,15555
1066.09,15623
1072.62,15215
1079.13,15300
1085.63,15408
1092.13,15239
1098.62,14935
1105.1,15109
1111.57,14889
1118.03,14944
1124.49,14870
1130.93,14893
1137.37,14826
1143.8,14518
1150.22,14566
1156.63,14711
1163.03,14638
1169.42,14514
1175.81,14320
1182.19,14398
1188.56,14381
1194.92,14283
1201.27,14304
1207.61,14316
1213.95,14373
1220.28,14370
1226.6,14470
1232.91,14192
1239.21,14458
1245.5,14452
1251.79,14218
1258.07,14298
1264.34,14364
1270.6,14347
1276.85,13978
1283.1,14238
1289.33,14068
1295.56,14161
1301.78,14093
1307.99,14118
1314.2,13946
1320.39,13905
1326.58,14006
1332.76,13786
1338.93,13769
1345.1,13732
1351.25,13576
1357.4,13690
1363.54,13695
1369.67,13519
1375.8,13448
1381.91,13423
1388.02,13215
1394.12,13282
1400.21,13136
1406.3,13226
1412.37,13024
1418.44,12983
1424.5,12957
1430.55,12927
1436.6,12925
1442.63,12762
1448.66,12676
1454.68,12449
1460.7,12418
1466.7,12438
1472.7,12291
1478.69,12498
1484.67,12253
1490.65,12254
1496.62,12061
1502.57,12112
1508.53,11900
1514.47,12080
1520.41,11872
1526.33,11892
1532.25,11848
1538.17,11540
1544.07,11700
1549.97,11496
1555.86,11577
1561.74,11349
1567.62,11341
1573.49,11508
1579.35,11238
1585.2,11077
1591.04,11169
1596.88,10979
1602.71,11094
1608.53,10979
1614.35,10777
1620.16,11122
1625.96,11092
1631.75,10978
1637.53,10868
1643.31,10621
1649.08,10417
1654.84,10382
1660.6,10336
1666.35,10333
1672.09,10306
1677.82,10257
1683.55,10135
1689.27,10012
1694.98,9934
1700.68,9857
1706.38,9851
1712.07,9776
1717.75,9821
1723.43,9502
1729.09,9539
1734.75,9480
1740.41,9512
1746.05,9451
1751.69,9316
1757.32,9301
1762.95,9347
1768.57,9154
1774.18,9058
1779.78,8972
1785.38,9052
1790.97,8877
1796.55,8770
1802.12,8687
1807.69,8779
1813.25,8706
1818.8,8669
1824.35,8405
1829.89,8383
1835.42,8323
1840.95,8232
1846.47,8258
1851.98,8227
1857.48,8096
1862.98,8057
1868.47,7864
1873.95,8054
1879.43,7986
1884.9,7992
1890.36,7859
1895.82,7843
1901.27,7663
1906.71,7676
1912.14,7522
1917.57,7474
1922.99,7425
1928.41,7349
1933.82,7382
1939.22,7142
1944.61,7253
1950,7009
1955.38,7103
1960.75,7021
1966.12,6903
1971.48,6943
1976.84,6823
1981.11,6774