File: example raman data/GM1_Fiber005.V3_Blue_140umx1.34um_40x_30sec.csv
340.52,4991
348.038,5071
355.545,5028
363.041,4858
370.528,4766
378.004,4815
385.47,4979
392.925,5193
400.371,4787
407.806,4662
415.231,4625
422.645,4596
430.05,4607
437.444,4515
444.829,4460
452.203,4499
459.567,4365
466.921,4450
474.265,4371
481.599,4408
488.923,4392
496.237,4271
503.541,4267
510.835,4291
518.119,4310
525.393,4227
532.657,4187
539.912,4086
547.156,4204
554.391,4050
561.616,4167
568.831,4101
576.036,4128
583.231,4103
590.417,4092
597.592,4104
604.758,4140
611.915,4058
619.061,4219
626.198,4224
633.326,4063
640.443,3923
647.551,3886
654.65,3907
661.738,3893
668.818,3808
675.887,3966
682.947,3783
689.998,3819
697.039,3827
704.07,3806
711.092,3798
718.105,3800
725.108,3747
732.102,3774
739.086,3656
746.061,3626
753.026,3786
759.982,3607
766.929,3612
773.866,3514
780.794,3512
787.713,3521
794.622,3459
801.523,3447
808.414,3373
815.295,3383
822.168,3449
829.031,3473
835.885,3456
842.73,3430
849.565,3370
856.392,3298
863.209,3228
870.018,3270
876.817,3217
883.607,3245
890.388,3153
897.16,3206
903.923,3122
910.677,3145
917.422,3193
924.158,3120
930.885,3183
937.603,3186
944.312,3192
951.012,3076
957.703,3088
964.385,3060
971.059,3082
977.723,3104
984.379,3029
991.026,3041
997.664,2993
1004.29,3009
1010.91,3015
1017.52,2962
1024.13,2958
1030.72,2954
1037.31,2955
1043.88,2928
1050.45,2939
1057.01,2902
1063.56,2882
1070.1,2892
1076.64,2859
1083.16,2851
1089.68,2862
1096.18,2817
1102.68,2843
1109.17,2814
1115.66,2803
1122.13,2836
1128.59,2854
1135.05,2808
1141.5,2782
1147.94,2736
1154.37,2738
1160.79,2718
1167.2,2785
1173.61,2754
1180,2756
1186.39,2694
1192.77,2700
1199.14,2690
1205.51,2673
1211.86,2629
1218.21,2691
1224.55,2660
1230.88,2581
1237.2,2563
1243.51,2620
1249.82,2598
1256.12,2608
1262.4,2610
1268.68,2559
1274.96,2593
1281.22,2568
1287.48,2599
1293.72,2670
1299.96,2724
1306.2,2662
1312.42,2594
1318.63,2576
1324.84,2529
1331.04,2495
1337.23,2489
1343.41,2476
1349.59,2476
1355.76,2453
1361.91,2404
1368.06,2432
1374.21,2409
1380.34,2474
1386.47,2450
1392.59,2412
1398.7,2406
1404.8,2379
1410.9,2379
1416.98,2348
1423.06,2532
1429.13,2325
1435.2,2349
1441.25,2287
1447.3,2259
1453.34,2298
1459.37,2181
1465.4,2255
1471.41,2176
1477.42,2158
1483.42,2070
1489.42,2056
1495.4,2044
1501.38,1979
1507.35,1967
1513.31,1956
1519.27,1923
1525.22,1963
1531.15,2004
1537.09,1885
1543.01,1828
1548.93,1796
1554.84,1830
1560.74,1830
1566.63,1766
1572.52,1730
1578.4,1725
1584.27,1699
1590.13,1673
1595.99,1669
1601.83,1651
1607.67,1627
1613.51,1608
1619.33,1592
1625.15,1550
1630.96,1595
1636.77,1726
1642.56,1660
1648.35,1552
1654.13,1560
1659.91,1481
1665.67,1490
1671.43,1483
1677.18,1534
1682.93,1791
1688.67,1675
1694.4,1552
1700.12,1424
1705.83,1413
1711.54,1373
1717.24,1339
1722.94,1329
1728.62,1325
1734.3,1301
1739.97,1267
1745.64,1252
1751.29,1291
1756.94,1283
1762.59,1271
1768.22,1323
1773.85,1359
1779.47,1261
1785.09,1252
1790.69,1239
1796.29,1236
1801.89,1215
1807.47,1238
1813.05,1201
1818.62,1199
1824.19,1222
1829.75,1206
1835.3,1207
1840.84,1199
1846.38,1206
1851.91,1231
1857.43,1200
1862.94,1180
1868.45,1224
1873.95,1210
1879.45,1227
1884.94,1227
1890.42,1197
1895.89,1166
1901.36,1196
1906.82,1231
1912.27,1246
1917.72,1217
1923.16,1175
1928.59,1221
1934.01,1262
1939.43,1227
1944.84,1251
1950.25,1245
1955.65,1242
1961.04,1207
1966.43,1234
1971.8,1250
1977.17,1249
1982.54,1264
1987.9,1250
1993.25,1231
1998.59,1243
2003.93,1278
2009.26,1264
2014.59,1255
2019.9,1271
2025.21,1289
2030.52,1294
2034.76,1272