File: example raman data/GM1_Fiber007.V1_Clear_220umx1.25um_40x_300sec.csv
340.52,61934
348.038,61470
355.545,61307
363.041,61196
370.528,60887
378.004,60932
385.47,61396
392.925,62336
400.371,59549
407.806,59200
415.231,58291
422.645,57741
430.05,57762
437.444,57233
444.829,56655
452.203,56349
459.567,55970
466.921,56202
474.265,55970
481.599,55309
488.923,55608
496.237,54570
503.541,54402
510.835,54166
518.119,53525
525.393,53180
532.657,52736
539.912,52778
547.156,52245
554.391,52717
561.616,52435
568.831,52023
576.036,51908
583.231,51783
590.417,51505
597.592,51192
604.758,51707
611.915,50855
619.061,50328
626.198,49683
633.326,49349
640.443,49097
647.551,49451
654.65,48950
661.738,48771
668.818,48277
675.887,47862
682.947,47729
689.998,47287
697.039,47195
704.07,47261
711.092,49274
718.105,47445
725.108,46479
732.102,45803
739.086,45598
746.061,45829
753.026,46947
759.982,45135
766.929,44525
773.866,44097
780.794,43421
787.713,43473
794.622,43089
801.523,42749
808.414,42477
815.295,42098
822.168,41895
829.031,41635
835.885,41401
842.73,40960
849.565,41058
856.392,40718
863.209,40700
870.018,40234
876.817,39844
883.607,39225
890.388,39405
897.16,38599
903.923,38805
910.677,38811
917.422,38728
924.158,38953
930.885,38874
937.603,38498
944.312,38146
951.012,38272
957.703,37869
964.385,37598
971.059,37863
977.723,37514
984.379,37459
991.026,37172
997.664,36780
1004.29,37233
1010.91,37002
1017.52,36025
1024.13,35914
1030.72,36020
1037.31,36019
1043.88,35734
1050.45,35426
1057.01,35097
1063.56,35225
1070.1,35107
1076.64,35144
1083.16,34841
1089.68,35386
1096.18,36886
1102.68,41652
1109.17,36425
1115.66,34563
1122.13,34018
1128.59,34407
1135.05,34325
1141.5,34029
1147.94,33688
1154.37,33504
1160.79,33132
1167.2,32759
1173.61,32751
1180,32423
1186.39,32332
1192.77,32495
1199.14,33794
1205.51,32184
1211.86,30812
1218.21,30620
1224.55,30616
1230.88,30242
1237.2,30250
1243.51,30094
1249.82,30139
1256.12,29713
1262.4,29852
1268.68,29964
1274.96,29798
1281.22,29468
1287.48,29423
1293.72,29425
1299.96,29773
1306.2,29361
1312.42,29254
1318.63,28978
1324.84,28820
1331.04,28768
1337.23,28929
1343.41,29017
1349.59,29217
1355.76,29140
1361.91,28190
1368.06,27729
1374.21,27391
1380.34,27054
1386.47,26192
1392.59,25547
1398.7,24932
1404.8,24503
1410.9,24557
1416.98,24141
1423.06,25300
1429.13,23676
1435.2,23673
1441.25,22935
1447.3,22620
1453.34,22498
1459.37,21722
1465.4,21436
1471.41,20783
1477.42,20388
1483.42,20311
1489.42,19780
1495.4,19262
1501.38,19254
1507.35,19264
1513.31,19473
1519.27,18289
1525.22,17576
1531.15,17735
1537.09,16803
1543.01,16181
1548.93,15802
1554.84,15283
1560.74,14731
1566.63,14430
1572.52,14102
1578.4,13876
1584.27,13443
1590.13,13004
1595.99,12598
1601.83,12404
1607.67,12222
1613.51,11865
1619.33,11523
1625.15,10980
1630.96,10759
1636.77,10468
1642.56,10160
1648.35,10036
1654.13,9595
1659.91,9418
1665.67,9169
1671.43,9085
1677.18,9370
1682.93,10709
1688.67,9877
1694.4,9317
1700.12,8607
1705.83,7984
1711.54,7679
1717.24,7403
1722.94,7199
1728.62,6943
1734.3,6850
1739.97,6728
1745.64,6616
1751.29,6414
1756.94,6323
1762.59,6165
1768.22,6367
1773.85,6876
1779.47,5985
1785.09,5870
1790.69,5683
1796.29,5664
1801.89,5551
1807.47,5486
1813.05,5410
1818.62,5319
1824.19,5327
1829.75,5276
1835.3,5188
1840.84,5179
1846.38,5132
1851.91,5104
1857.43,5077
1862.94,5088
1868.45,5014
1873.95,4984
1879.45,4995
1884.94,4975
1890.42,4947
1895.89,4910
1901.36,4844
1906.82,4894
1912.27,4952
1917.72,4972
1923.16,4999
1928.59,4900
1934.01,5018
1939.43,5119
1944.84,4954
1950.25,4992
1955.65,5016
1961.04,4979
1966.43,5074
1971.8,4977
1977.17,5031
1982.54,5022
1987.9,5040
1993.25,5056
1998.59,5119
2003.93,5126
2009.26,5112
2014.59,5223
2019.9,5111
2025.21,5138
2030.52,5246
2034.76,5315