File: example raman data/GM1_Fiber002.V2_Black_C85umxD12.5_240sec.csv
340.52,12963
348.038,12542
355.545,12446
363.041,12248
370.528,12230
378.004,12352
385.47,13328
392.925,14914
400.371,11455
407.806,11274
415.231,11091
422.645,11015
430.05,11041
437.444,10921
444.829,10628
452.203,10547
459.567,10355
466.921,10366
474.265,10515
481.599,10240
488.923,10348
496.237,10106
503.541,10097
510.835,9903
518.119,9837
525.393,9908
532.657,9492
539.912,9575
547.156,9524
554.391,9563
561.616,9592
568.831,9569
576.036,9582
583.231,9715
590.417,9664
597.592,9478
604.758,9711
611.915,9236
619.061,9183
626.198,8916
633.326,8860
640.443,8745
647.551,8804
654.65,8547
661.738,8627
668.818,8610
675.887,8464
682.947,8572
689.998,8457
697.039,8450
704.07,8559
711.092,8480
718.105,8523
725.108,8528
732.102,8376
739.086,8253
746.061,8481
753.026,8350
759.982,8449
766.929,8240
773.866,8338
780.794,8408
787.713,8693
794.622,8784
801.523,8870
808.414,9018
815.295,8962
822.168,8979
829.031,9009
835.885,9000
842.73,9076
849.565,9092
856.392,9259
863.209,9261
870.018,9430
876.817,9549
883.607,9628
890.388,9708
897.16,9662
903.923,9902
910.677,10040
917.422,10362
924.158,10430
930.885,10514
937.603,10492
944.312,10456
951.012,10352
957.703,10183
964.385,9993
971.059,10000
977.723,9593
984.379,9509
991.026,9306
997.664,9117
1004.29,9047
1010.91,8950
1017.52,8670
1024.13,8624
1030.72,8750
1037.31,8712
1043.88,8729
1050.45,8560
1057.01,8644
1063.56,8701
1070.1,8910
1076.64,8956
1083.16,9030
1089.68,9159
1096.18,9134
1102.68,9335
1109.17,9393
1115.66,9576
1122.13,10012
1128.59,11142
1135.05,13390
1141.5,12058
1147.94,12201
1154.37,12674
1160.79,12090
1167.2,11087
1173.61,10176
1180,9561
1186.39,9411
1192.77,9759
1199.14,11670
1205.51,9666
1211.86,9011
1218.21,8780
1224.55,8700
1230.88,8643
1237.2,8830
1243.51,8884
1249.82,8637
1256.12,8699
1262.4,8814
1268.68,8762
1274.96,8657
1281.22,8736
1287.48,8808
1293.72,9103
1299.96,9425
1306.2,9303
1312.42,9320
1318.63,9430
1324.84,9471
1331.04,9715
1337.23,10000
1343.41,10118
1349.59,10305
1355.76,11310
1361.91,13339
1368.06,16564
1374.21,14989
1380.34,13542
1386.47,12345
1392.59,11171
1398.7,10291
1404.8,9783
1410.9,9623
1416.98,9443
1423.06,11134
1429.13,9588
1435.2,9516
1441.25,9090
1447.3,8963
1453.34,8870
1459.37,8406
1465.4,8736
1471.41,8145
1477.42,8185
1483.42,8526
1489.42,9144
1495.4,9992
1501.38,12468
1507.35,14200
1513.31,13112
1519.27,11962
1525.22,11317
1531.15,10488
1537.09,8683
1543.01,7806
1548.93,7369
1554.84,7093
1560.74,6871
1566.63,6706
1572.52,6713
1578.4,6652
1584.27,6438
1590.13,6369
1595.99,6261
1601.83,6346
1607.67,6408
1613.51,6158
1619.33,6087
1625.15,5956
1630.96,5871
1636.77,5926
1642.56,5840
1648.35,5818
1654.13,5840
1659.91,5811
1665.67,5922
1671.43,6097
1677.18,6423
1682.93,8379
1688.67,7481
1694.4,6794
1700.12,5951
1705.83,6210
1711.54,5482
1717.24,5335
1722.94,5316
1728.62,5187
1734.3,5290
1739.97,5243
1745.64,5164
1751.29,5187
1756.94,5125
1762.59,5196
1768.22,5369
1773.85,6120
1779.47,5221
1785.09,5103
1790.69,5098
1796.29,5078
1801.89,5032
1807.47,5023
1813.05,5022
1818.62,4963
1824.19,4951
1829.75,4977
1835.3,5022
1840.84,4975
1846.38,5003
1851.91,5068
1857.43,5000
1862.94,4847
1868.45,4941
1873.95,5038
1879.45,4967
1884.94,4974
1890.42,4931
1895.89,5034
1901.36,5072
1906.82,5112
1912.27,5056
1917.72,5114
1923.16,5059
1928.59,5143
1934.01,5252
1939.43,5254
1944.84,5263
1950.25,5201
1955.65,5247
1961.04,5213
1966.43,5204
1971.8,5373
1977.17,5309
1982.54,5286
1987.9,5446
1993.25,5339
1998.59,5422
2003.93,5311
2009.26,5408
2014.59,5362
2019.9,5428
2025.21,5480
2030.52,5515
2034.76,5648