File: example raman data/GM1_Fiber002.V6_Black_C85umxD12.5_18sec.csv
269.58,50817
277.181,50548
284.772,50304
292.352,50252
299.921,49972
307.48,49797
315.029,49906
322.567,49895
330.095,49645
337.613,49344
345.12,49276
352.617,48911
360.103,49077
367.579,48390
375.045,48466
382.5,48075
389.946,48175
397.381,47834
404.806,47581
412.22,47604
419.625,47134
427.019,47209
434.403,46821
441.777,46472
449.141,46624
456.495,46395
463.838,46328
471.172,46287
478.495,46237
485.809,45951
493.113,45772
500.406,45764
507.69,45405
514.963,45244
522.227,45017
529.481,44767
536.725,44475
543.959,44367
551.183,44163
558.397,43775
565.601,43836
572.796,43846
579.981,43809
587.156,43468
594.321,43136
601.477,42893
608.623,42772
615.759,42402
622.885,42467
630.002,42371
637.109,42732
644.206,41656
651.294,41760
658.372,41245
665.441,41384
672.5,41579
679.55,41047
686.589,40539
693.62,40290
700.641,39884
707.652,39716
714.654,39361
721.647,38908
728.63,38778
735.603,38602
742.567,38140
749.522,38325
756.468,37908
763.404,37725
770.33,37694
777.248,37444
784.156,37214
791.054,36998
797.944,36928
804.824,36317
811.695,36023
818.557,36155
825.409,35940
832.253,35797
839.087,35635
845.912,35307
852.728,35656
859.534,35485
866.332,35434
873.12,35245
879.9,35155
886.67,34940
893.431,34663
900.183,34747
906.927,34690
913.661,34480
920.386,34213
927.102,34182
933.809,33819
940.508,33572
947.197,33636
953.877,33380
960.549,33376
967.211,33124
973.865,33171
980.51,32998
987.146,32773
993.773,32651
1000.39,32679
1007,32538
1013.6,32474
1020.19,33206
1026.78,34531
1033.35,33569
1039.92,32054
1046.47,31525
1053.02,31477
1059.56,31442
1066.09,31291
1072.62,30987
1079.13,30809
1085.63,30680
1092.13,30357
1098.62,30005
1105.1,30133
1111.57,29964
1118.03,29587
1124.49,29393
1130.93,29141
1137.37,28918
1143.8,28981
1150.22,28590
1156.63,28561
1163.03,28401
1169.42,27802
1175.81,27883
1182.19,27881
1188.56,27537
1194.92,27516
1201.27,27338
1207.61,27542
1213.95,27340
1220.28,27101
1226.6,26955
1232.91,26786
1239.21,26732
1245.5,26748
1251.79,26302
1258.07,26311
1264.34,25943
1270.6,25977
1276.85,25812
1283.1,25395
1289.33,25096
1295.56,24847
1301.78,24563
1307.99,24123
1314.2,23520
1320.39,23379
1326.58,23133
1332.76,22719
1338.93,22333
1345.1,22031
1351.25,21680
1357.4,21344
1363.54,21007
1369.67,20759
1375.8,20473
1381.91,19988
1388.02,19727
1394.12,19372
1400.21,18667
1406.3,18541
1412.37,17935
1418.44,17677
1424.5,17226
1430.55,17034
1436.6,16631
1442.63,16346
1448.66,15767
1454.68,15236
1460.7,15102
1466.7,14355
1472.7,14057
1478.69,13758
1484.67,13365
1490.65,12933
1496.62,12532
1502.57,12095
1508.53,11973
1514.47,11456
1520.41,11056
1526.33,10843
1532.25,10393
1538.17,10149
1544.07,9673
1549.97,9422
1555.86,9142
1561.74,8731
1567.62,8519
1573.49,8180
1579.35,7836
1585.2,7592
1591.04,7250
1596.88,7079
1602.71,6852
1608.53,6571
1614.35,6323
1620.16,6141
1625.96,6010
1631.75,5761
1637.53,5642
1643.31,5243
1649.08,5130
1654.84,4908
1660.6,4738
1666.35,4556
1672.09,4354
1677.82,4372
1683.55,4119
1689.27,3995
1694.98,3865
1700.68,3764
1706.38,3717
1712.07,3568
1717.75,3532
1723.43,3347
1729.09,3302
1734.75,3209
1740.41,3143
1746.05,3060
1751.69,3057
1757.32,2986
1762.95,2918
1768.57,2856
1774.18,2743
1779.78,2749
1785.38,2715
1790.97,2726
1796.55,2601
1802.12,2567
1807.69,2630
1813.25,2554
1818.8,2595
1824.35,2529
1829.89,2583
1835.42,2489
1840.95,2550
1846.47,2442
1851.98,2446
1857.48,2471
1862.98,2430
1868.47,2439
1873.95,2363
1879.43,2381
1884.9,2437
1890.36,2432
1895.82,2408
1901.27,2387
1906.71,2440
1912.14,2422
1917.57,2418
1922.99,2410
1928.41,2430
1933.82,2404
1939.22,2418
1944.61,2475
1950,2368
1955.38,2470
1960.75,2478
1966.12,2397
1971.48,2477
1976.84,2432
1981.11,2397