File: example raman data/GM4-Fiber001.v4-Black-5.5umx0.75um_10sec.csv
269.58,33728
277.181,34045
284.772,33787
292.352,33579
299.921,33503
307.48,33519
315.029,33148
322.567,33211
330.095,33233
337.613,33224
345.12,32901
352.617,32631
360.103,32694
367.579,32475
375.045,32388
382.5,32313
389.946,32272
397.381,32418
404.806,32466
412.22,32402
419.625,31986
427.019,31981
434.403,31936
441.777,31795
449.141,31662
456.495,31566
463.838,31727
471.172,31820
478.495,32115
485.809,33168
493.113,32695
500.406,32003
507.69,31582
514.963,31362
522.227,31409
529.481,31179
536.725,30809
543.959,30709
551.183,30882
558.397,30758
565.601,30676
572.796,30842
579.981,30592
587.156,30607
594.321,30566
601.477,30462
608.623,30158
615.759,30297
622.885,30090
630.002,29944
637.109,29765
644.206,29745
651.294,29813
658.372,29718
665.441,29364
672.5,29453
679.55,29196
686.589,29092
693.62,29319
700.641,28784
707.652,28616
714.654,28478
721.647,28290
728.63,28254
735.603,28196
742.567,27833
749.522,28089
756.468,27946
763.404,27805
770.33,27959
777.248,27767
784.156,27342
791.054,27468
797.944,27135
804.824,27140
811.695,27060
818.557,26864
825.409,26900
832.253,26895
839.087,26783
845.912,26747
852.728,26668
859.534,26720
866.332,26805
873.12,26663
879.9,26568
886.67,26639
893.431,26532
900.183,26592
906.927,26595
913.661,26476
920.386,26195
927.102,26234
933.809,26207
940.508,25903
947.197,25770
953.877,25880
960.549,25801
967.211,25693
973.865,25671
980.51,25579
987.146,25431
993.773,25556
1000.39,25493
1007,25846
1013.6,25518
1020.19,25367
1026.78,25362
1033.35,25159
1039.92,25155
1046.47,25020
1053.02,24917
1059.56,24736
1066.09,24857
1072.62,24544
1079.13,24772
1085.63,24648
1092.13,24699
1098.62,24617
1105.1,24563
1111.57,24613
1118.03,24427
1124.49,24925
1130.93,24812
1137.37,24876
1143.8,24722
1150.22,24654
1156.63,24547
1163.03,24388
1169.42,23596
1175.81,23894
1182.19,24107
1188.56,23716
1194.92,23589
1201.27,23360
1207.61,23292
1213.95,23233
1220.28,23261
1226.6,23067
1232.91,22735
1239.21,22675
1245.5,22633
1251.79,22274
1258.07,22142
1264.34,22130
1270.6,22130
1276.85,22346
1283.1,22430
1289.33,22255
1295.56,21695
1301.78,21199
1307.99,20762
1314.2,20329
1320.39,20367
1326.58,20240
1332.76,20052
1338.93,19952
1345.1,19701
1351.25,19394
1357.4,19120
1363.54,18767
1369.67,18488
1375.8,18278
1381.91,17684
1388.02,17351
1394.12,16822
1400.21,16600
1406.3,16420
1412.37,16219
1418.44,15782
1424.5,15339
1430.55,15012
1436.6,14663
1442.63,14231
1448.66,13843
1454.68,13560
1460.7,13104
1466.7,12828
1472.7,12526
1478.69,12292
1484.67,11864
1490.65,11440
1496.62,11280
1502.57,11016
1508.53,10574
1514.47,10271
1520.41,9900
1526.33,9597
1532.25,9173
1538.17,9022
1544.07,8764
1549.97,8479
1555.86,8195
1561.74,8018
1567.62,7699
1573.49,7636
1579.35,7278
1585.2,7056
1591.04,6847
1596.88,6369
1602.71,6154
1608.53,5972
1614.35,5727
1620.16,5555
1625.96,5283
1631.75,5071
1637.53,4907
1643.31,4613
1649.08,4328
1654.84,4271
1660.6,4145
1666.35,3983
1672.09,3827
1677.82,3714
1683.55,3535
1689.27,3451
1694.98,3350
1700.68,3280
1706.38,3127
1712.07,3094
1717.75,2985
1723.43,2870
1729.09,2699
1734.75,2711
1740.41,2636
1746.05,2537
1751.69,2550
1757.32,2455
1762.95,2446
1768.57,2355
1774.18,2272
1779.78,2267
1785.38,2239
1790.97,2180
1796.55,2144
1802.12,2124
1807.69,2103
1813.25,2094
1818.8,1994
1824.35,2015
1829.89,1999
1835.42,2007
1840.95,1991
1846.47,1962
1851.98,1922
1857.48,1865
1862.98,1930
1868.47,1910
1873.95,1863
1879.43,1864
1884.9,1896
1890.36,1872
1895.82,1884
1901.27,1852
1906.71,1833
1912.14,1855
1917.57,1872
1922.99,1857
1928.41,1867
1933.82,1840
1939.22,1891
1944.61,1837
1950,1847
1955.38,1819
1960.75,1871
1966.12,1919
1971.48,1856
1976.84,1865
1981.11,1873