File: example raman data/GM4-Fiber001.v3-Black-5.5umx0.75um_3sec.csv
269.58,55697
277.181,55759
284.772,55158
292.352,55109
299.921,54772
307.48,55227
315.029,55480
322.567,55195
330.095,55446
337.613,55331
345.12,55015
352.617,54782
360.103,54608
367.579,54617
375.045,54510
382.5,54252
389.946,54508
397.381,54296
404.806,54530
412.22,54243
419.625,54089
427.019,53832
434.403,53617
441.777,53625
449.141,53093
456.495,53324
463.838,53156
471.172,53513
478.495,54580
485.809,56980
493.113,56655
500.406,53963
507.69,53333
514.963,52751
522.227,52365
529.481,51745
536.725,51443
543.959,51638
551.183,51514
558.397,51295
565.601,51300
572.796,51123
579.981,51154
587.156,50795
594.321,50489
601.477,50710
608.623,50752
615.759,50333
622.885,49958
630.002,49727
637.109,49613
644.206,49350
651.294,49400
658.372,48892
665.441,48684
672.5,48728
679.55,48506
686.589,48166
693.62,47655
700.641,47446
707.652,47292
714.654,47090
721.647,46596
728.63,46255
735.603,46015
742.567,46136
749.522,45837
756.468,45556
763.404,45474
770.33,45118
777.248,45288
784.156,44930
791.054,44276
797.944,44473
804.824,43897
811.695,43487
818.557,43429
825.409,43625
832.253,43360
839.087,43111
845.912,43432
852.728,43191
859.534,42872
866.332,42969
873.12,42739
879.9,42648
886.67,42825
893.431,42610
900.183,42571
906.927,42899
913.661,42332
920.386,41838
927.102,41774
933.809,41493
940.508,41657
947.197,41079
953.877,40797
960.549,40566
967.211,40530
973.865,40505
980.51,40486
987.146,40340
993.773,40279
1000.39,40152
1007,40605
1013.6,39966
1020.19,39720
1026.78,39483
1033.35,39562
1039.92,38994
1046.47,39199
1053.02,38851
1059.56,38617
1066.09,38568
1072.62,38517
1079.13,38218
1085.63,38381
1092.13,38095
1098.62,37928
1105.1,38021
1111.57,37779
1118.03,38228
1124.49,38947
1130.93,39047
1137.37,39229
1143.8,38614
1150.22,38538
1156.63,38888
1163.03,37626
1169.42,36205
1175.81,36154
1182.19,37097
1188.56,36734
1194.92,36215
1201.27,35887
1207.61,35770
1213.95,35520
1220.28,35425
1226.6,34518
1232.91,33838
1239.21,33928
1245.5,33569
1251.79,33201
1258.07,33009
1264.34,32768
1270.6,33260
1276.85,33714
1283.1,34012
1289.33,33650
1295.56,32273
1301.78,31021
1307.99,30812
1314.2,30441
1320.39,29804
1326.58,29432
1332.76,29076
1338.93,29217
1345.1,29167
1351.25,28520
1357.4,27755
1363.54,27390
1369.67,26734
1375.8,25719
1381.91,25129
1388.02,24760
1394.12,23987
1400.21,23412
1406.3,23120
1412.37,22950
1418.44,22341
1424.5,21657
1430.55,21141
1436.6,20278
1442.63,19397
1448.66,18888
1454.68,18272
1460.7,17821
1466.7,17389
1472.7,16928
1478.69,16501
1484.67,15866
1490.65,15399
1496.62,15151
1502.57,14622
1508.53,14104
1514.47,13503
1520.41,12979
1526.33,12521
1532.25,12195
1538.17,11715
1544.07,11088
1549.97,10878
1555.86,10526
1561.74,10171
1567.62,9945
1573.49,9758
1579.35,9353
1585.2,9079
1591.04,8662
1596.88,8022
1602.71,7669
1608.53,7107
1614.35,6876
1620.16,6587
1625.96,6126
1631.75,5756
1637.53,5664
1643.31,5355
1649.08,5034
1654.84,4866
1660.6,4617
1666.35,4423
1672.09,4239
1677.82,4046
1683.55,3888
1689.27,3614
1694.98,3520
1700.68,3344
1706.38,3259
1712.07,2998
1717.75,2964
1723.43,2813
1729.09,2743
1734.75,2635
1740.41,2550
1746.05,2454
1751.69,2352
1757.32,2312
1762.95,2228
1768.57,2168
1774.18,2097
1779.78,1990
1785.38,1965
1790.97,1957
1796.55,1866
1802.12,1782
1807.69,1808
1813.25,1772
1818.8,1725
1824.35,1697
1829.89,1638
1835.42,1626
1840.95,1584
1846.47,1588
1851.98,1546
1857.48,1504
1862.98,1534
1868.47,1447
1873.95,1449
1879.43,1461
1884.9,1458
1890.36,1393
1895.82,1427
1901.27,1398
1906.71,1410
1912.14,1385
1917.57,1382
1922.99,1339
1928.41,1367
1933.82,1396
1939.22,1345
1944.61,1364
1950,1322
1955.38,1317
1960.75,1349
1966.12,1314
1971.48,1334
1976.84,1267
1981.11,1322