File: example raman data/GM4-Fiber001.v2-Black-5.5umx0.75um_4sec.csv
269.58,59840
277.181,59326
284.772,59124
292.352,59063
299.921,58918
307.48,59031
315.029,58684
322.567,59130
330.095,59276
337.613,59081
345.12,58837
352.617,58733
360.103,58689
367.579,58307
375.045,58393
382.5,57981
389.946,58027
397.381,57944
404.806,57978
412.22,57828
419.625,57993
427.019,57744
434.403,57300
441.777,57028
449.141,57081
456.495,56861
463.838,56907
471.172,57124
478.495,58225
485.809,60171
493.113,60140
500.406,57611
507.69,56945
514.963,56159
522.227,55871
529.481,55457
536.725,55275
543.959,55391
551.183,55424
558.397,54904
565.601,55112
572.796,54746
579.981,54514
587.156,54541
594.321,54201
601.477,54099
608.623,54232
615.759,53796
622.885,53425
630.002,53184
637.109,53316
644.206,53085
651.294,52919
658.372,52942
665.441,52549
672.5,52176
679.55,51878
686.589,51585
693.62,51117
700.641,50973
707.652,50696
714.654,50582
721.647,49952
728.63,49710
735.603,49827
742.567,49046
749.522,49592
756.468,49335
763.404,48814
770.33,48770
777.248,48369
784.156,48282
791.054,47960
797.944,47849
804.824,47415
811.695,47104
818.557,46782
825.409,46701
832.253,46542
839.087,46309
845.912,46370
852.728,46282
859.534,46189
866.332,45959
873.12,46076
879.9,45825
886.67,45802
893.431,45825
900.183,45704
906.927,45416
913.661,45584
920.386,44859
927.102,44701
933.809,44526
940.508,44122
947.197,44021
953.877,43877
960.549,43544
967.211,43462
973.865,43225
980.51,43177
987.146,42871
993.773,42849
1000.39,42785
1007,43033
1013.6,42856
1020.19,42627
1026.78,42039
1033.35,42033
1039.92,41615
1046.47,41641
1053.02,41479
1059.56,41056
1066.09,41079
1072.62,40811
1079.13,40762
1085.63,40522
1092.13,40416
1098.62,40303
1105.1,39980
1111.57,39804
1118.03,40299
1124.49,40929
1130.93,41144
1137.37,40891
1143.8,40192
1150.22,40245
1156.63,40413
1163.03,39500
1169.42,38403
1175.81,38085
1182.19,38750
1188.56,38489
1194.92,37868
1201.27,37866
1207.61,37200
1213.95,37360
1220.28,36905
1226.6,36309
1232.91,35803
1239.21,35640
1245.5,35156
1251.79,35020
1258.07,34610
1264.34,34551
1270.6,34459
1276.85,34818
1283.1,35302
1289.33,34758
1295.56,33410
1301.78,32605
1307.99,31897
1314.2,31371
1320.39,31375
1326.58,30680
1332.76,30182
1338.93,30309
1345.1,30284
1351.25,29544
1357.4,29047
1363.54,28409
1369.67,27656
1375.8,27033
1381.91,26285
1388.02,25644
1394.12,25046
1400.21,24433
1406.3,24140
1412.37,23739
1418.44,23166
1424.5,22510
1430.55,22037
1436.6,21059
1442.63,20667
1448.66,19832
1454.68,19152
1460.7,18646
1466.7,18222
1472.7,17521
1478.69,17337
1484.67,16742
1490.65,16339
1496.62,15774
1502.57,15174
1508.53,14580
1514.47,14147
1520.41,13558
1526.33,13010
1532.25,12619
1538.17,12144
1544.07,11620
1549.97,11350
1555.86,11020
1561.74,10612
1567.62,10297
1573.49,10023
1579.35,9597
1585.2,9202
1591.04,9004
1596.88,8316
1602.71,7866
1608.53,7442
1614.35,7017
1620.16,6734
1625.96,6393
1631.75,6135
1637.53,5931
1643.31,5572
1649.08,5219
1654.84,4984
1660.6,4890
1666.35,4578
1672.09,4406
1677.82,4283
1683.55,4054
1689.27,3792
1694.98,3600
1700.68,3434
1706.38,3359
1712.07,3271
1717.75,3130
1723.43,2978
1729.09,2770
1734.75,2725
1740.41,2631
1746.05,2519
1751.69,2441
1757.32,2377
1762.95,2271
1768.57,2216
1774.18,2174
1779.78,2112
1785.38,2018
1790.97,1945
1796.55,1919
1802.12,1885
1807.69,1896
1813.25,1834
1818.8,1785
1824.35,1743
1829.89,1734
1835.42,1650
1840.95,1647
1846.47,1656
1851.98,1635
1857.48,1594
1862.98,1570
1868.47,1526
1873.95,1505
1879.43,1530
1884.9,1493
1890.36,1516
1895.82,1465
1901.27,1470
1906.71,1458
1912.14,1465
1917.57,1436
1922.99,1464
1928.41,1430
1933.82,1405
1939.22,1427
1944.61,1433
1950,1403
1955.38,1400
1960.75,1367
1966.12,1374
1971.48,1363
1976.84,1355
1981.11,1408